Theta [deg.]  Phi   [deg.]  Abs(Gain)[dB    ]   Abs(Left )[dB    ]  Phase(Left )[deg.]  Abs(Right)[dB    ]  Phase(Right)[deg.]  Ax.Ratio[dB    ]    
------------------------------------------------------------------------------------------------------------------------------------------------------
   0.000          90.000           2.133e+001          1.832e+001             358.972          1.832e+001             178.972          4.000e+001     
   1.000          90.000           2.122e+001          1.821e+001             359.410          1.821e+001             179.410          4.000e+001     
   2.000          90.000           2.089e+001          1.788e+001               0.775          1.788e+001             180.775          4.000e+001     
   3.000          90.000           2.036e+001          1.735e+001               3.219          1.735e+001             183.219          4.000e+001     
   4.000          90.000           1.966e+001          1.665e+001               6.974          1.665e+001             186.974          4.000e+001     
   5.000          90.000           1.887e+001          1.586e+001              12.279          1.586e+001             192.279          4.000e+001     
   6.000          90.000           1.809e+001          1.508e+001              19.210          1.508e+001             199.210          4.000e+001     
   7.000          90.000           1.747e+001          1.446e+001              27.404          1.446e+001             207.404          4.000e+001     
   8.000          90.000           1.710e+001          1.409e+001              35.924          1.409e+001             215.924          4.000e+001     
   9.000          90.000           1.697e+001          1.396e+001              43.570          1.396e+001             223.570          4.000e+001     
  10.000          90.000           1.697e+001          1.396e+001              49.479          1.396e+001             229.479          4.000e+001     
  11.000          90.000           1.695e+001          1.394e+001              53.409          1.394e+001             233.409          4.000e+001     
  12.000          90.000           1.679e+001          1.378e+001              55.585          1.378e+001             235.585          4.000e+001     
  13.000          90.000           1.642e+001          1.341e+001              56.455          1.341e+001             236.455          4.000e+001     
  14.000          90.000           1.578e+001          1.277e+001              56.561          1.277e+001             236.561          4.000e+001     
  15.000          90.000           1.483e+001          1.182e+001              56.536          1.182e+001             236.536          4.000e+001     
  16.000          90.000           1.357e+001          1.056e+001              57.187          1.056e+001             237.187          4.000e+001     
  17.000          90.000           1.202e+001          9.014e+000              59.627          9.014e+000             239.627          4.000e+001     
  18.000          90.000           1.035e+001          7.340e+000              65.260          7.340e+000             245.260          4.000e+001     
  19.000          90.000           8.940e+000          5.929e+000              74.974          5.929e+000             254.974          4.000e+001     
  20.000          90.000           8.322e+000          5.312e+000              86.872          5.312e+000             266.872          4.000e+001     
  21.000          90.000           8.569e+000          5.558e+000              96.280          5.558e+000             276.280          4.000e+001     
  22.000          90.000           9.179e+000          6.169e+000             100.479          6.169e+000             280.479          4.000e+001     
  23.000          90.000           9.689e+000          6.678e+000              99.957          6.678e+000             279.957          4.000e+001     
  24.000          90.000           9.879e+000          6.869e+000              96.127          6.869e+000             276.127          4.000e+001     
  25.000          90.000           9.669e+000          6.658e+000              90.178          6.658e+000             270.178          4.000e+001     
  26.000          90.000           9.016e+000          6.005e+000              83.022          6.005e+000             263.022          4.000e+001     
  27.000          90.000           7.872e+000          4.861e+000              75.500          4.861e+000             255.500          4.000e+001     
  28.000          90.000           6.162e+000          3.151e+000              68.711          3.151e+000             248.711          4.000e+001     
  29.000          90.000           3.786e+000          7.759e-001              64.679          7.760e-001             244.679          4.000e+001     
  30.000          90.000           7.954e-001         -2.215e+000              67.961         -2.215e+000             247.961          4.000e+001     
  31.000          90.000          -1.601e+000         -4.611e+000              85.594         -4.611e+000             265.594          4.000e+001     
  32.000          90.000          -8.280e-001         -3.838e+000             107.269         -3.838e+000             287.269          4.000e+001     
  33.000          90.000           1.566e+000         -1.445e+000             113.444         -1.445e+000             293.444          4.000e+001     
  34.000          90.000           3.558e+000          5.478e-001             108.340          5.478e-001             288.340          4.000e+001     
  35.000          90.000           4.880e+000          1.870e+000              97.845          1.870e+000             277.845          4.000e+001     
  36.000          90.000           5.620e+000          2.609e+000              84.550          2.609e+000             264.550          4.000e+001     
  37.000          90.000           5.865e+000          2.854e+000              69.586          2.854e+000             249.587          4.000e+001     
  38.000          90.000           5.663e+000          2.652e+000              53.533          2.652e+000             233.534          4.000e+001     
  39.000          90.000           5.026e+000          2.016e+000              36.738          2.016e+000             216.738          4.000e+001     
  40.000          90.000           3.933e+000          9.225e-001              19.477          9.226e-001             199.477          4.000e+001     
  41.000          90.000           2.313e+000         -6.977e-001               2.094         -6.977e-001             182.094          4.000e+001     
  42.000          90.000           1.155e-002         -2.999e+000             345.221         -2.999e+000             165.221          4.000e+001     
  43.000          90.000          -3.311e+000         -6.322e+000             330.522         -6.322e+000             150.523          4.000e+001     
  44.000          90.000          -8.413e+000         -1.142e+001             324.456         -1.142e+001             144.456          4.000e+001     
  45.000          90.000          -1.406e+001         -1.707e+001               0.204         -1.707e+001             180.202          4.000e+001     
  46.000          90.000          -9.132e+000         -1.214e+001              36.042         -1.214e+001             216.041          4.000e+001     
  47.000          90.000          -4.688e+000         -7.699e+000              29.064         -7.699e+000             209.064          4.000e+001     
  48.000          90.000          -2.027e+000         -5.038e+000              12.613         -5.038e+000             192.613          4.000e+001     
  49.000          90.000          -3.703e-001         -3.381e+000             353.153         -3.381e+000             173.153          4.000e+001     
  50.000          90.000           6.424e-001         -2.368e+000             332.265         -2.368e+000             152.265          4.000e+001     
  51.000          90.000           1.196e+000         -1.814e+000             310.514         -1.814e+000             130.514          4.000e+001     
  52.000          90.000           1.401e+000         -1.609e+000             288.184         -1.609e+000             108.184          4.000e+001     
  53.000          90.000           1.329e+000         -1.682e+000             265.527         -1.682e+000              85.527          4.000e+001     
  54.000          90.000           1.021e+000         -1.990e+000             242.822         -1.990e+000              62.822          4.000e+001     
  55.000          90.000           4.947e-001         -2.516e+000             220.353         -2.516e+000              40.353          4.000e+001     
  56.000          90.000          -2.494e-001         -3.260e+000             198.389         -3.260e+000              18.389          4.000e+001     
  57.000          90.000          -1.211e+000         -4.221e+000             177.160         -4.221e+000             357.160          4.000e+001     
  58.000          90.000          -2.368e+000         -5.379e+000             156.911         -5.379e+000             336.911          4.000e+001     
  59.000          90.000          -3.651e+000         -6.661e+000             137.977         -6.661e+000             317.977          4.000e+001     
  60.000          90.000          -4.917e+000         -7.927e+000             120.808         -7.927e+000             300.808          4.000e+001     
  61.000          90.000          -5.949e+000         -8.960e+000             105.733         -8.960e+000             285.733          4.000e+001     
  62.000          90.000          -6.522e+000         -9.532e+000              92.287         -9.532e+000             272.287          4.000e+001     
  63.000          90.000          -6.549e+000         -9.559e+000              79.006         -9.559e+000             259.006          4.000e+001     
  64.000          90.000          -6.171e+000         -9.181e+000              64.145         -9.181e+000             244.145          4.000e+001     
  65.000          90.000          -5.633e+000         -8.644e+000              46.672         -8.643e+000             226.673          4.000e+001     
  66.000          90.000          -5.111e+000         -8.121e+000              26.346         -8.121e+000             206.346          4.000e+001     
  67.000          90.000          -4.657e+000         -7.668e+000               3.404         -7.668e+000             183.404          4.000e+001     
  68.000          90.000          -4.252e+000         -7.263e+000             338.428         -7.263e+000             158.428          4.000e+001     
  69.000          90.000          -3.877e+000         -6.888e+000             312.233         -6.888e+000             132.234          4.000e+001     
  70.000          90.000          -3.567e+000         -6.578e+000             285.539         -6.578e+000             105.539          4.000e+001     
  71.000          90.000          -3.388e+000         -6.399e+000             258.604         -6.399e+000              78.604          4.000e+001     
  72.000          90.000          -3.381e+000         -6.391e+000             231.204         -6.391e+000              51.204          4.000e+001     
  73.000          90.000          -3.517e+000         -6.528e+000             202.956         -6.527e+000              22.956          4.000e+001     
  74.000          90.000          -3.712e+000         -6.722e+000             173.745         -6.722e+000             353.745          4.000e+001     
  75.000          90.000          -3.885e+000         -6.896e+000             143.981         -6.896e+000             323.981          4.000e+001     
  76.000          90.000          -4.039e+000         -7.050e+000             114.312         -7.049e+000             294.312          4.000e+001     
  77.000          90.000          -4.250e+000         -7.261e+000              85.016         -7.261e+000             265.016          4.000e+001     
  78.000          90.000          -4.587e+000         -7.598e+000              55.768         -7.598e+000             235.768          4.000e+001     
  79.000          90.000          -5.034e+000         -8.044e+000              25.960         -8.044e+000             205.960          4.000e+001     
  80.000          90.000          -5.490e+000         -8.501e+000             355.324         -8.501e+000             175.324          4.000e+001     
  81.000          90.000          -5.863e+000         -8.874e+000             324.305         -8.874e+000             144.305          4.000e+001     
  82.000          90.000          -6.166e+000         -9.176e+000             293.647         -9.176e+000             113.647          4.000e+001     
  83.000          90.000          -6.503e+000         -9.513e+000             263.572         -9.513e+000              83.572          4.000e+001     
  84.000          90.000          -6.949e+000         -9.959e+000             233.522         -9.959e+000              53.522          4.000e+001     
  85.000          90.000          -7.459e+000         -1.047e+001             202.742         -1.047e+001              22.742          4.000e+001     
  86.000          90.000          -7.905e+000         -1.092e+001             171.098         -1.092e+001             351.098          4.000e+001     
  87.000          90.000          -8.209e+000         -1.122e+001             139.317         -1.122e+001             319.317          4.000e+001     
  88.000          90.000          -8.443e+000         -1.145e+001             108.137         -1.145e+001             288.137          4.000e+001     
  89.000          90.000          -8.740e+000         -1.175e+001              77.382         -1.175e+001             257.382          4.000e+001     
  90.000          90.000          -9.135e+000         -1.215e+001              46.136         -1.215e+001             226.136          4.000e+001     
  91.000          90.000          -9.513e+000         -1.252e+001              13.774         -1.252e+001             193.774          4.000e+001     
  92.000          90.000          -9.734e+000         -1.274e+001             340.761         -1.274e+001             160.761          4.000e+001     
  93.000          90.000          -9.821e+000         -1.283e+001             308.174         -1.283e+001             128.174          4.000e+001     
  94.000          90.000          -9.940e+000         -1.295e+001             276.270         -1.295e+001              96.271          4.000e+001     
  95.000          90.000          -1.020e+001         -1.321e+001             244.115         -1.321e+001              64.115          4.000e+001     
  96.000          90.000          -1.051e+001         -1.352e+001             210.632         -1.352e+001              30.632          4.000e+001     
  97.000          90.000          -1.067e+001         -1.368e+001             175.971         -1.368e+001             355.971          4.000e+001     
  98.000          90.000          -1.063e+001         -1.364e+001             141.545         -1.364e+001             321.545          4.000e+001     
  99.000          90.000          -1.059e+001         -1.360e+001             108.181         -1.360e+001             288.182          4.000e+001     
 100.000          90.000          -1.073e+001         -1.374e+001              75.014         -1.374e+001             255.014          4.000e+001     
 101.000          90.000          -1.101e+001         -1.402e+001              40.449         -1.402e+001             220.450          4.000e+001     
 102.000          90.000          -1.117e+001         -1.418e+001               4.087         -1.418e+001             184.088          4.000e+001     
 103.000          90.000          -1.104e+001         -1.405e+001             327.656         -1.405e+001             147.657          4.000e+001     
 104.000          90.000          -1.080e+001         -1.381e+001             292.906         -1.381e+001             112.906          4.000e+001     
 105.000          90.000          -1.079e+001         -1.380e+001             259.298         -1.380e+001              79.298          4.000e+001     
 106.000          90.000          -1.108e+001         -1.409e+001             224.687         -1.409e+001              44.687          4.000e+001     
 107.000          90.000          -1.138e+001         -1.439e+001             187.489         -1.439e+001               7.489          4.000e+001     
 108.000          90.000          -1.131e+001         -1.432e+001             148.938         -1.432e+001             328.938          4.000e+001     
 109.000          90.000          -1.091e+001         -1.392e+001             112.066         -1.392e+001             292.067          4.000e+001     
 110.000          90.000          -1.062e+001         -1.363e+001              77.645         -1.363e+001             257.646          4.000e+001     
 111.000          90.000          -1.070e+001         -1.371e+001              43.668         -1.371e+001             223.669          4.000e+001     
 112.000          90.000          -1.103e+001         -1.404e+001               7.645         -1.404e+001             187.646          4.000e+001     
 113.000          90.000          -1.116e+001         -1.418e+001             329.099         -1.418e+001             149.100          4.000e+001     
 114.000          90.000          -1.086e+001         -1.387e+001             290.758         -1.387e+001             110.759          4.000e+001     
 115.000          90.000          -1.040e+001         -1.341e+001             255.156         -1.341e+001              75.156          4.000e+001     
 116.000          90.000          -1.023e+001         -1.324e+001             221.625         -1.324e+001              41.626          4.000e+001     
 117.000          90.000          -1.044e+001         -1.345e+001             187.743         -1.345e+001               7.744          4.000e+001     
 118.000          90.000          -1.081e+001         -1.382e+001             151.584         -1.382e+001             331.585          4.000e+001     
 119.000          90.000          -1.093e+001         -1.394e+001             113.682         -1.394e+001             293.682          4.000e+001     
 120.000          90.000          -1.073e+001         -1.374e+001              76.832         -1.374e+001             256.832          4.000e+001     
 121.000          90.000          -1.056e+001         -1.357e+001              42.558         -1.357e+001             222.558          4.000e+001     
 122.000          90.000          -1.076e+001         -1.377e+001               9.643         -1.377e+001             189.643          4.000e+001     
 123.000          90.000          -1.139e+001         -1.441e+001             335.602         -1.441e+001             155.602          4.000e+001     
 124.000          90.000          -1.220e+001         -1.521e+001             298.403         -1.521e+001             118.403          4.000e+001     
 125.000          90.000          -1.270e+001         -1.571e+001             258.507         -1.571e+001              78.507          4.000e+001     
 126.000          90.000          -1.276e+001         -1.577e+001             219.043         -1.577e+001              39.043          4.000e+001     
 127.000          90.000          -1.276e+001         -1.577e+001             181.751         -1.577e+001               1.751          4.000e+001     
 128.000          90.000          -1.302e+001         -1.603e+001             145.100         -1.603e+001             325.100          4.000e+001     
 129.000          90.000          -1.347e+001         -1.648e+001             106.510         -1.648e+001             286.509          4.000e+001     
 130.000          90.000          -1.363e+001         -1.664e+001              65.330         -1.664e+001             245.330          4.000e+001     
 131.000          90.000          -1.319e+001         -1.620e+001              24.634         -1.620e+001             204.634          4.000e+001     
 132.000          90.000          -1.248e+001         -1.549e+001             347.602         -1.549e+001             167.602          4.000e+001     
 133.000          90.000          -1.197e+001         -1.498e+001             313.962         -1.498e+001             133.962          4.000e+001     
 134.000          90.000          -1.190e+001         -1.491e+001             281.615         -1.491e+001             101.615          4.000e+001     
 135.000          90.000          -1.225e+001         -1.526e+001             248.383         -1.526e+001              68.382          4.000e+001     
 136.000          90.000          -1.278e+001         -1.579e+001             212.692         -1.579e+001              32.692          4.000e+001     
 137.000          90.000          -1.315e+001         -1.616e+001             174.290         -1.616e+001             354.290          4.000e+001     
 138.000          90.000          -1.306e+001         -1.607e+001             134.846         -1.607e+001             314.846          4.000e+001     
 139.000          90.000          -1.252e+001         -1.553e+001              96.860         -1.553e+001             276.860          4.000e+001     
 140.000          90.000          -1.178e+001         -1.479e+001              61.798         -1.479e+001             241.797          4.000e+001     
 141.000          90.000          -1.108e+001         -1.409e+001              29.829         -1.409e+001             209.828          4.000e+001     
 142.000          90.000          -1.062e+001         -1.363e+001               0.493         -1.363e+001             180.492          4.000e+001     
 143.000          90.000          -1.056e+001         -1.357e+001             333.007         -1.357e+001             153.007          4.000e+001     
 144.000          90.000          -1.104e+001         -1.405e+001             306.229         -1.405e+001             126.228          4.000e+001     
 145.000          90.000          -1.220e+001         -1.521e+001             278.269         -1.521e+001              98.268          4.000e+001     
 146.000          90.000          -1.404e+001         -1.705e+001             245.586         -1.705e+001              65.586          4.000e+001     
 147.000          90.000          -1.590e+001         -1.891e+001             202.476         -1.891e+001              22.477          4.000e+001     
 148.000          90.000          -1.577e+001         -1.878e+001             151.498         -1.878e+001             331.499          4.000e+001     
 149.000          90.000          -1.371e+001         -1.672e+001             109.993         -1.672e+001             289.993          4.000e+001     
 150.000          90.000          -1.175e+001         -1.476e+001              80.176         -1.476e+001             260.176          4.000e+001     
 151.000          90.000          -1.059e+001         -1.360e+001              56.368         -1.360e+001             236.367          4.000e+001     
 152.000          90.000          -1.029e+001         -1.330e+001              34.945         -1.330e+001             214.945          4.000e+001     
 153.000          90.000          -1.086e+001         -1.387e+001              13.569         -1.387e+001             193.569          4.000e+001     
 154.000          90.000          -1.233e+001         -1.534e+001             349.521         -1.534e+001             169.520          4.000e+001     
 155.000          90.000          -1.455e+001         -1.756e+001             317.819         -1.756e+001             137.818          4.000e+001     
 156.000          90.000          -1.615e+001         -1.916e+001             272.210         -1.916e+001              92.210          4.000e+001     
 157.000          90.000          -1.486e+001         -1.787e+001             224.732         -1.787e+001              44.733          4.000e+001     
 158.000          90.000          -1.244e+001         -1.545e+001             191.998         -1.545e+001              11.999          4.000e+001     
 159.000          90.000          -1.065e+001         -1.366e+001             169.273         -1.366e+001             349.273          4.000e+001     
 160.000          90.000          -9.770e+000         -1.278e+001             151.010         -1.278e+001             331.010          4.000e+001     
 161.000          90.000          -9.798e+000         -1.281e+001             134.358         -1.281e+001             314.358          4.000e+001     
 162.000          90.000          -1.078e+001         -1.379e+001             117.184         -1.379e+001             297.184          4.000e+001     
 163.000          90.000          -1.288e+001         -1.589e+001              96.122         -1.589e+001             276.122          4.000e+001     
 164.000          90.000          -1.597e+001         -1.898e+001              62.464         -1.898e+001             242.463          4.000e+001     
 165.000          90.000          -1.686e+001         -1.987e+001               6.977         -1.987e+001             186.977          4.000e+001     
 166.000          90.000          -1.348e+001         -1.649e+001             324.036         -1.649e+001             144.036          4.000e+001     
 167.000          90.000          -1.028e+001         -1.329e+001             301.339         -1.329e+001             121.340          4.000e+001     
 168.000          90.000          -8.198e+000         -1.121e+001             286.777         -1.121e+001             106.777          4.000e+001     
 169.000          90.000          -7.046e+000         -1.006e+001             275.643         -1.006e+001              95.643          4.000e+001     
 170.000          90.000          -6.691e+000         -9.701e+000             266.147         -9.701e+000              86.147          4.000e+001     
 171.000          90.000          -7.103e+000         -1.011e+001             257.305         -1.011e+001              77.305          4.000e+001     
 172.000          90.000          -8.362e+000         -1.137e+001             248.124         -1.137e+001              68.124          4.000e+001     
 173.000          90.000          -1.071e+001         -1.372e+001             236.658         -1.372e+001              56.658          4.000e+001     
 174.000          90.000          -1.457e+001         -1.758e+001             216.650         -1.758e+001              36.650          4.000e+001     
 175.000          90.000          -1.850e+001         -2.151e+001             166.598         -2.151e+001             346.599          4.000e+001     
 176.000          90.000          -1.523e+001         -1.824e+001             112.294         -1.824e+001             292.294          4.000e+001     
 177.000          90.000          -1.120e+001         -1.421e+001              92.274         -1.421e+001             272.274          4.000e+001     
 178.000          90.000          -8.736e+000         -1.175e+001              84.058         -1.175e+001             264.059          4.000e+001     
 179.000          90.000          -7.425e+000         -1.044e+001              80.346         -1.044e+001             260.346          4.000e+001     
 180.000          90.000          -7.012e+000         -1.002e+001              79.248         -1.002e+001             259.248          4.000e+001     
